Single Spectrum_010_3             
x       y           
[m<sup>-1</sup>]     [CCD cts]         
1143.4971  778.79999            
1242.5919  778.20001            
1341.6735  778.20001            
1440.7417  778.40002            
1539.7967  778            
1638.8383  778.59998            
1737.8667  779.40002            
1836.8818  778.20001            
1935.8836  779.20001            
2034.8721  779.20001            
2133.8474  779            
2232.8093  779            
2331.758  778.59998            
2430.6935  778.79999            
2529.6156  779            
2628.5245  778.59998            
2727.4201  779.20001            
2826.3024  778.59998            
2925.1715  777.79999            
3024.0273  779            
3122.8698  778.79999            
3221.6991  777.79999            
3320.5151  778.59998            
3419.3178  779            
3518.1073  779.20001            
3616.8835  779.20001            
3715.6465  777.79999            
3814.3962  779            
3913.1327  778.59998            
4011.8559  779.20001            
4110.5659  779.20001            
4209.2626  779.59998            
4307.9461  778            
4406.6163  778.59998            
4505.2733  778.40002            
4603.917  778.59998            
4702.5475  778.40002            
4801.1648  779.59998            
4899.7688  777.79999            
4998.3596  778.20001            
5096.9372  778.59998            
5195.5015  777.59998            
5294.0526  778.40002            
5392.5904  778            
5491.1151  778.79999            
5589.6265  779            
5688.1247  778            
5786.6096  779            
5885.0814  778.79999            
5983.5399  778.59998            
6081.9852  778.20001            
6180.4173  778            
6278.8361  777.59998            
6377.2418  778.40002            
6475.6342  778.40002            
6574.0134  778.40002            
6672.3794  778.79999            
6770.7322  779.59998            
6869.0718  778            
6967.3982  778.59998            
7065.7114  778.59998            
7164.0114  778.40002            
7262.2982  778            
7360.5718  779.20001            
7458.8322  779            
7557.0794  779            
7655.3134  779.40002            
7753.5342  777.79999            
7851.7418  779.20001            
7949.9362  778.79999            
8048.1175  779            
8146.2855  780            
8244.4404  780            
8342.5821  779.79999            
8440.7105  778.40002            
8538.8259  779.59998            
8636.928  778.20001            
8735.017  778.59998            
8833.0927  778.59998            
8931.1553  779.40002            
9029.2048  778.40002            
9127.241  777.79999            
9225.2641  778.40002            
9323.2741  779            
9421.2708  779            
9519.2544  779.40002            
9617.2248  778.59998            
9715.1821  779            
9813.1262  781            
9911.0571  781            
10008.975  784.20001            
10106.88  789.40002            
10204.771  798            
10302.649  811.79999            
10400.514  827.79999            
10498.367  846            
10596.205  853.59998            
10694.031  855.20001            
10791.844  852.20001            
10889.643  844.79999            
10987.429  837.20001            
11085.203  835.59998            
11182.963  834            
11280.709  841.20001            
11378.443  846            
11476.164  849.20001            
11573.871  848.20001            
11671.565  856.40002            
11769.247  859.79999            
11866.915  868            
11964.57  868.20001            
12062.211  867.20001            
12159.84  866.59998            
12257.456  865.59998            
12355.058  864.79999            
12452.647  865.40002            
12550.224  865.40002            
12647.787  864.59998            
12745.337  863.79999            
12842.874  861.59998            
12940.397  859            
13037.908  860.59998            
13135.405  864.79999            
13232.89  860.79999            
13330.361  863            
13427.819  863.79999            
13525.265  861.40002            
13622.696  869.20001            
13720.115  869.40002            
13817.521  865.59998            
13914.914  866.59998            
14012.293  871            
14109.66  875.79999            
14207.013  871.79999            
14304.354  873            
14401.681  871.20001            
14498.995  871.20001            
14596.296  871.20001            
14693.584  871.79999            
14790.859  875.20001            
14888.121  877.40002            
14985.37  874.40002            
15082.605  877.59998            
15179.828  881            
15277.037  875.20001            
15374.234  872.59998            
15471.417  871.79999            
15568.587  871.79999            
15665.744  871.20001            
15762.889  870.59998            
15860.02  867.59998            
15957.138  867.59998            
16054.243  867.59998            
16151.334  866            
16248.413  868.59998            
16345.479  864.59998            
16442.532  864.79999            
16539.571  865            
16636.598  869.59998            
16733.611  862            
16830.612  869.40002            
16927.599  867.79999            
17024.574  868.79999            
17121.535  864.20001            
17218.483  865.40002            
17315.418  868            
17412.341  861            
17509.25  862.59998            
17606.146  864            
17703.029  865.59998            
17799.899  865.79999            
17896.756  861.20001            
17993.6  858.79999            
18090.431  855.59998            
18187.249  860.59998            
18284.054  858.79999            
18380.845  863.40002            
18477.624  858.40002            
18574.39  856.79999            
18671.143  853.40002            
18767.882  859            
18864.609  865.40002            
18961.323  858.59998            
19058.023  859            
19154.711  855.40002            
19251.386  859.40002            
19348.047  866.20001            
19444.696  860.40002            
19541.332  860.59998            
19637.954  855.79999            
19734.564  857.40002            
19831.16  859            
19927.744  860.20001            
20024.315  858.79999            
20120.872  864.59998            
20217.417  861.20001            
20313.948  862.79999            
20410.467  868.40002            
20506.972  860.59998            
20603.465  861            
20699.945  860.79999            
20796.411  861            
20892.865  861.20001            
20989.305  866.40002            
21085.733  866            
21182.148  859.79999            
21278.549  862.40002            
21374.938  861.79999            
21471.314  863            
21567.677  860.79999            
21664.026  859.20001            
21760.363  858            
21856.687  860.40002            
21952.998  859.59998            
22049.296  855.79999            
22145.581  860.59998            
22241.852  856.20001            
22338.111  853.79999            
22434.357  860.59998            
22530.59  855            
22626.81  853.20001            
22723.018  856.20001            
22819.212  852.20001            
22915.393  851.59998            
23011.561  852.20001            
23107.716  852.20001            
23203.859  850.40002            
23299.988  853.79999            
23396.105  858.20001            
23492.208  850.59998            
23588.299  850.59998            
23684.376  850.20001            
23780.441  852.20001            
23876.492  854            
23972.531  854            
24068.557  851.79999            
24164.57  848.79999            
24260.57  851.20001            
24356.557  849.79999            
24452.531  847            
24548.492  850.20001            
24644.44  850.59998            
24740.375  848.79999            
24836.298  853.20001            
24932.207  848            
25028.104  849.40002            
25123.987  848.40002            
25219.858  848.59998            
25315.716  851.79999            
25411.56  849.59998            
25507.392  847.40002            
25603.211  852            
25699.017  847.40002            
25794.81  849.40002            
25890.591  849.79999            
25986.358  848.79999            
26082.112  850.79999            
26177.854  848.59998            
26273.582  848.79999            
26369.298  850.79999            
26465.001  848.59998            
26560.691  847.40002            
26656.368  845            
26752.032  851.40002            
26847.683  849.20001            
26943.321  847.20001            
27038.947  844.40002            
27134.559  849.79999            
27230.159  849            
27325.746  847.59998            
27421.319  848.20001            
27516.88  848.59998            
27612.428  849.40002            
27707.964  846            
27803.486  848            
27898.995  848.59998            
27994.492  853.79999            
28089.976  853.59998            
28185.446  852.40002            
28280.904  847.79999            
28376.349  854.79999            
28471.781  854            
28567.201  856            
28662.607  854.59998            
28758.001  857            
28853.381  860.59998            
28948.749  857.40002            
29044.104  856.59998            
29139.446  859.20001            
29234.776  858.40002            
29330.092  858.79999            
29425.396  859.59998            
29520.686  865            
29615.964  865.59998            
29711.229  868            
29806.481  866.20001            
29901.72  867            
29996.947  873.20001            
30092.16  871.40002            
30187.361  873.40002            
30282.549  867.40002            
30377.724  867.20001            
30472.886  866.40002            
30568.036  863.79999            
30663.172  864.20001            
30758.296  864.40002            
30853.407  863            
30948.505  860.40002            
31043.59  862.59998            
31138.662  862.40002            
31233.722  863.79999            
31328.769  862.20001            
31423.802  859.20001            
31518.823  857.40002            
31613.832  862.59998            
31708.827  858.79999            
31803.81  858.59998            
31898.779  853.79999            
31993.736  859.79999            
32088.681  854.59998            
32183.612  862.79999            
32278.53  860.20001            
32373.436  858.20001            
32468.329  857            
32563.209  858.79999            
32658.076  858            
32752.931  854.59998            
32847.773  856.79999            
32942.601  858.20001            
33037.417  860.59998            
33132.221  857            
33227.011  858.59998            
33321.789  861.40002            
33416.554  859            
33511.306  859.79999            
33606.045  860.79999            
33700.772  858            
33795.485  854.59998            
33890.186  860.79999            
33984.874  863            
34079.55  863.20001            
34174.212  860            
34268.862  861.79999            
34363.499  863.59998            
34458.123  862.40002            
34552.735  862.79999            
34647.334  865.20001            
34741.919  864.59998            
34836.493  866.59998            
34931.053  874            
35025.601  875.79999            
35120.135  879            
35214.657  884.59998            
35309.167  877            
35403.663  886.20001            
35498.147  878            
35592.618  874.59998            
35687.076  872.59998            
35781.522  867            
35875.955  870.59998            
35970.375  871            
36064.782  867.79999            
36159.176  865.59998            
36253.558  859.59998            
36347.927  867.40002            
36442.283  871.59998            
36536.627  863.40002            
36630.957  868.40002            
36725.275  868.40002            
36819.581  865.20001            
36913.873  862.20001            
37008.153  869.59998            
37102.42  862.40002            
37196.674  862.79999            
37290.916  859.59998            
37385.145  867            
37479.361  869.59998            
37573.564  864            
37667.755  864.79999            
37761.933  864.40002            
37856.098  867.79999            
37950.25  866            
38044.39  863            
38138.517  865.79999            
38232.631  868.79999            
38326.733  863.79999            
38420.822  864.79999            
38514.898  867.79999            
38608.961  863.59998            
38703.012  862.20001            
38797.05  864.20001            
38891.075  863.20001            
38985.088  867            
39079.088  866            
39173.075  865            
39267.05  865.79999            
39361.011  864.79999            
39454.96  868            
39548.897  867.79999            
39642.821  862.20001            
39736.731  864.20001            
39830.63  867            
39924.515  868.79999            
40018.388  863.40002            
40112.249  859.79999            
40206.096  863            
40299.931  868.79999            
40393.753  869.79999            
40487.562  864.40002            
40581.359  868.79999            
40675.143  864.59998            
40768.915  865.59998            
40862.674  868.79999            
40956.42  862.59998            
41050.153  861.59998            
41143.874  865.59998            
41237.582  864            
41331.277  858            
41424.96  860            
41518.63  861.79999            
41612.287  863            
41705.932  865.40002            
41799.564  859.79999            
41893.183  858.79999            
41986.79  864.59998            
42080.384  859.59998            
42173.966  865.40002            
42267.534  867.59998            
42361.09  864.59998            
42454.634  859.20001            
42548.165  860.40002            
42641.683  860            
42735.188  861.59998            
42828.681  856            
42922.161  855.59998            
43015.629  856.79999            
43109.084  862.79999            
43202.526  862.40002            
43295.955  862.79999            
43389.372  862            
43482.777  860            
43576.168  857.59998            
43669.547  864.20001            
43762.914  862.59998            
43856.268  863.59998            
43949.609  862.40002            
44042.937  864.79999            
44136.253  861.59998            
44229.557  862.20001            
44322.847  864            
44416.125  862.79999            
44509.391  863            
44602.644  863.59998            
44695.884  861.79999            
44789.111  859.20001            
44882.326  858.79999            
44975.529  865.59998            
45068.718  865.59998            
45161.895  864.79999            
45255.06  862.40002            
45348.212  866.20001            
45441.351  862.59998            
45534.478  864.79999            
45627.592  865.59998            
45720.693  868.20001            
45813.782  869            
45906.858  866.40002            
45999.922  867.40002            
46092.973  866.79999            
46186.011  871.40002            
46279.037  871.59998            
46372.051  871.40002            
46465.051  869.20001            
46558.039  869.79999            
46651.015  870.20001            
46743.978  869.79999            
46836.928  872.20001            
46929.866  872.79999            
47022.791  869.79999            
47115.704  872            
47208.604  867.59998            
47301.491  861.20001            
47394.366  868.79999            
47487.228  867.20001            
47580.078  867.59998            
47672.915  869.59998            
47765.74  866            
47858.552  867.40002            
47951.351  869.79999            
48044.138  866.59998            
48136.912  868.59998            
48229.674  867.79999            
48322.423  869.79999            
48415.16  867.40002            
48507.884  870.20001            
48600.595  870            
48693.294  865.59998            
48785.981  867.20001            
48878.654  865.40002            
48971.316  868.79999            
49063.964  873.20001            
49156.601  871.79999            
49249.224  874.20001            
49341.835  865            
49434.434  868.59998            
49527.02  870.20001            
49619.593  867.79999            
49712.154  869.20001            
49804.703  869.79999            
49897.238  869.79999            
49989.762  869.20001            
50082.273  870            
50174.771  871.79999            
50267.256  866.59998            
50359.73  866.79999            
50452.19  868            
50544.638  868.20001            
50637.074  868.20001            
50729.497  867.79999            
50821.908  874.40002            
50914.306  874.79999            
51006.691  872.40002            
51099.064  869.79999            
51191.424  870.59998            
51283.772  870.59998            
51376.108  870.59998            
51468.431  867.59998            
51560.741  870.79999            
51653.039  870.79999            
51745.324  872            
51837.597  867.40002            
51929.858  870.40002            
52022.106  872            
52114.341  869            
52206.564  874.79999            
52298.774  869.59998            
52390.972  870.40002            
52483.157  867.59998            
52575.33  868.79999            
52667.491  873.79999            
52759.638  874.40002            
52851.774  874.20001            
52943.897  871.20001            
53036.007  872.20001            
53128.105  871.59998            
53220.191  871.40002            
53312.263  875            
53404.324  876.20001            
53496.372  877.59998            
53588.407  881.40002            
53680.431  874.40002            
53772.441  873.79999            
53864.439  881.40002            
53956.425  879.79999            
54048.398  883            
54140.359  882            
54232.307  887            
54324.242  890            
54416.166  887            
54508.077  888.40002            
54599.975  895.59998            
54691.861  897.79999            
54783.734  906.79999            
54875.595  909            
54967.444  921.40002            
55059.28  922.40002            
55151.103  929.59998            
55242.914  939            
55334.713  943.40002            
55426.499  948            
55518.273  944.20001            
55610.034  940            
55701.783  931.40002            
55793.519  921.79999            
55885.243  918.40002            
55976.955  915.20001            
56068.654  909.79999            
56160.341  910.79999            
56252.015  909.59998            
56343.677  911.79999            
56435.326  914.79999            
56526.963  908.59998            
56618.588  906.59998            
56710.2  907.20001            
56801.799  907.79999            
56893.386  914.20001            
56984.961  907            
57076.523  908.40002            
57168.073  907.79999            
57259.611  912.40002            
57351.136  909.40002            
57442.649  909.59998            
57534.149  915.59998            
57625.637  919.79999            
57717.112  920.20001            
57808.575  917.79999            
57900.026  919            
57991.464  919.40002            
58082.89  919.20001            
58174.303  918.40002            
58265.704  920.79999            
58357.092  923            
58448.468  925.20001            
58539.832  924.59998            
58631.184  929.79999            
58722.522  916.79999            
58813.849  916.79999            
58905.163  916.20001            
58996.465  925.59998            
59087.754  926            
59179.031  931.20001            
59270.296  930            
59361.548  925.59998            
59452.788  918            
59544.015  921.59998            
59635.23  925.59998            
59726.433  930.20001            
59817.623  929            
59908.801  926.59998            
59999.966  927.79999            
60091.119  932.79999            
60182.26  933.40002            
60273.389  932.20001            
60364.505  935.59998            
60455.608  936.40002            
60546.699  935.59998            
60637.778  942            
60728.845  940            
60819.899  946            
60910.941  947            
61001.97  951.20001            
61092.987  949.79999            
61183.992  949.20001            
61274.984  948            
61365.964  956.40002            
61456.932  955.59998            
61547.887  956.59998            
61638.83  955            
61729.76  959            
61820.679  965.59998            
61911.584  957            
62002.478  957            
62093.359  959.40002            
62184.228  963            
62275.084  966.40002            
62365.928  969.40002            
62456.76  960.20001            
62547.58  952.40002            
62638.387  950.79999            
62729.181  953.59998            
62819.964  960            
62910.734  951.79999            
63001.492  954.20001            
63092.237  948.40002            
63182.97  948.59998            
63273.691  951            
63364.4  946.20001            
63455.096  938.59998            
63545.779  940            
63636.451  934.40002            
63727.11  932.40002            
63817.757  932.40002            
63908.391  926.20001            
63999.014  927.20001            
64089.624  930.59998            
64180.221  921.59998            
64270.806  923            
64361.379  920.20001            
64451.94  918.79999            
64542.488  913.59998            
64633.024  907.59998            
64723.548  916.20001            
64814.059  918.20001            
64904.558  924.40002            
64995.045  918.20001            
65085.52  919.20001            
65175.982  919.79999            
65266.432  907            
65356.87  917.79999            
65447.295  919.40002            
65537.708  911.79999            
65628.109  905.79999            
65718.497  904            
65808.873  912.40002            
65899.237  901.59998            
65989.589  891.59998            
66079.928  895            
66170.255  895.40002            
66260.57  892.40002            
66350.872  890            
66441.162  894.20001            
66531.44  882.59998            
66621.706  876.59998            
66711.959  876.79999            
66802.2  875.40002            
66892.429  868.40002            
66982.646  868.59998            
67072.85  871.79999            
67163.042  868.20001            
67253.222  860.20001            
67343.389  861.59998            
67433.544  857.79999            
67523.687  859.79999            
67613.818  856.40002            
67703.937  851.59998            
67794.043  856.79999            
67884.137  852.59998            
67974.218  851.40002            
68064.288  850.40002            
68154.345  848.59998            
68244.39  851.59998            
68334.422  851.40002            
68424.443  849.20001            
68514.451  848.40002            
68604.447  847.59998            
68694.431  844.20001            
68784.402  843.20001            
68874.361  839.59998            
68964.308  845            
69054.243  842            
69144.165  843.20001            
69234.076  838.59998            
69323.974  845.59998            
69413.859  840.20001            
69503.733  844.40002            
69593.594  840.79999            
69683.443  840.79999            
69773.28  840.20001            
69863.105  838.20001            
69952.917  841            
70042.718  838.20001            
70132.506  840.40002            
70222.281  836.59998            
70312.045  838.20001            
70401.796  839.79999            
70491.535  836            
70581.262  842.79999            
70670.977  836.20001            
70760.679  838.79999            
70850.37  838.20001            
70940.048  836            
71029.714  836.59998            
71119.367  837.40002            
71209.009  836            
71298.638  839.59998            
71388.255  837.79999            
71477.86  835            
71567.453  837.20001            
71657.033  838.79999            
71746.601  837.79999            
71836.157  836            
71925.701  835.79999            
72015.233  836.40002            
72104.752  835.79999            
72194.26  834.40002            
72283.755  838.59998            
72373.238  833.79999            
72462.708  834.79999            
72552.167  834.79999            
72641.613  834            
72731.048  832            
72820.47  831            
72909.879  832.59998            
72999.277  830.59998            
73088.663  830.40002            
73178.036  831.79999            
73267.397  832.40002            
73356.746  832.59998            
73446.083  831.79999            
73535.408  832            
73624.72  828.79999            
73714.02  836            
73803.309  831.79999            
73892.585  832.79999            
73981.848  830.59998            
74071.1  830            
74160.34  826.59998            
74249.567  832.40002            
74338.782  830.40002            
74427.985  825            
74517.176  828.40002            
74606.355  829.59998            
74695.521  829.20001            
74784.676  830.20001            
74873.818  826.79999            
74962.948  828.20001            
75052.066  826.79999            
75141.172  826.20001            
75230.266  827.40002            
75319.348  827            
75408.417  827.40002            
75497.474  831.40002            
75586.52  831.20001            
75675.553  832.59998            
75764.574  827.20001            
75853.582  828.20001            
75942.579  827.40002            
76031.564  822.20001            
76120.536  825.59998            
76209.496  827.20001            
76298.445  828.40002            
76387.381  824.40002            
76476.305  823.40002            
76565.216  827.40002            
76654.116  827.20001            
76743.004  824.40002            
76831.879  826.59998            
76920.742  826.40002            
77009.594  824.20001            
77098.433  825.20001            
77187.26  825            
77276.075  826            
77364.878  824            
77453.668  825.20001            
77542.447  823            
77631.213  824            
77719.968  824.59998            
77808.71  823.79999            
77897.44  823.79999            
77986.158  823            
78074.864  825.20001            
78163.558  829            
78252.24  824.20001            
78340.91  826.79999            
78429.567  822.59998            
78518.213  820.40002            
78606.846  820            
78695.468  824.59998            
78784.077  822.79999            
78872.674  820.40002            
78961.259  824.79999            
79049.832  823.20001            
79138.393  820.40002            
79226.942  822.20001            
79315.479  822.79999            
79404.004  825.59998            
