Single Spectrum_007_6             
x       y           
[m<sup>-1</sup>]     [CCD cts]         
1935.8836  779.40002            
2034.8721  779.79999            
2133.8474  780            
2232.8093  779.40002            
2331.758  779            
2430.6935  779.79999            
2529.6156  779            
2628.5245  779.59998            
2727.4201  779.40002            
2826.3024  778.79999            
2925.1715  778.79999            
3024.0273  779            
3122.8698  779.20001            
3221.6991  778.59998            
3320.5151  779.20001            
3419.3178  778.59998            
3518.1073  779            
3616.8835  779.59998            
3715.6465  779.20001            
3814.3962  779.40002            
3913.1327  780.20001            
4011.8559  779.40002            
4110.5659  779.20001            
4209.2626  779.40002            
4307.9461  779.20001            
4406.6163  779            
4505.2733  779.79999            
4603.917  780            
4702.5475  779.79999            
4801.1648  778.59998            
4899.7688  779.59998            
4998.3596  779            
5096.9372  779.40002            
5195.5015  780.40002            
5294.0526  779.40002            
5392.5904  779.79999            
5491.1151  779.59998            
5589.6265  779.59998            
5688.1247  779.20001            
5786.6096  779            
5885.0814  779.20001            
5983.5399  779.40002            
6081.9852  779.20001            
6180.4173  779.40002            
6278.8361  778.59998            
6377.2418  778.59998            
6475.6342  780.20001            
6574.0134  778.79999            
6672.3794  779.59998            
6770.7322  779.79999            
6869.0718  779.59998            
6967.3982  780            
7065.7114  778.59998            
7164.0114  779.59998            
7262.2982  778.40002            
7360.5718  779            
7458.8322  779.20001            
7557.0794  779.59998            
7655.3134  779.59998            
7753.5342  778.79999            
7851.7418  779.40002            
7949.9362  778.59998            
8048.1175  780.20001            
8146.2855  779            
8244.4404  779.79999            
8342.5821  779.59998            
8440.7105  779            
8538.8259  779.20001            
8636.928  779            
8735.017  779.59998            
8833.0927  779.20001            
8931.1553  779.20001            
9029.2048  779.20001            
9127.241  779.59998            
9225.2641  779.79999            
9323.2741  780            
9421.2708  779.59998            
9519.2544  779.59998            
9617.2248  779.59998            
9715.1821  779.79999            
9813.1262  779.20001            
9911.0571  780            
10008.975  781            
10106.88  781.40002            
10204.771  783.59998            
10302.649  789.20001            
10400.514  795.59998            
10498.367  799.79999            
10596.205  801.40002            
10694.031  804.59998            
10791.844  801.20001            
10889.643  798.79999            
10987.429  798            
11085.203  797.79999            
11182.963  798.79999            
11280.709  798.40002            
11378.443  799.40002            
11476.164  801.20001            
11573.871  803.20001            
11671.565  806.59998            
11769.247  805.79999            
11866.915  807.59998            
11964.57  812.40002            
12062.211  810.40002            
12159.84  811.40002            
12257.456  808.40002            
12355.058  810.79999            
12452.647  811            
12550.224  809.79999            
12647.787  810.20001            
12745.337  809.59998            
12842.874  811.40002            
12940.397  811            
13037.908  809.59998            
13135.405  808.79999            
13232.89  809.59998            
13330.361  812.40002            
13427.819  808.40002            
13525.265  809.40002            
13622.696  812            
13720.115  813            
13817.521  813.79999            
13914.914  813.79999            
14012.293  811            
14109.66  816.59998            
14207.013  814.40002            
14304.354  812.40002            
14401.681  808.40002            
14498.995  811.79999            
14596.296  811.59998            
14693.584  812.40002            
14790.859  809.79999            
14888.121  811.59998            
14985.37  811.40002            
15082.605  811.79999            
15179.828  811.79999            
15277.037  812            
15374.234  813            
15471.417  812.20001            
15568.587  810.79999            
15665.744  811            
15762.889  811            
15860.02  810.79999            
15957.138  813.40002            
16054.243  812            
16151.334  813.20001            
16248.413  815            
16345.479  816.59998            
16442.532  815            
16539.571  814            
16636.598  811.40002            
16733.611  813.79999            
16830.612  814.59998            
16927.599  814.40002            
17024.574  814            
17121.535  815.20001            
17218.483  814.59998            
17315.418  819.20001            
17412.341  817.20001            
17509.25  815.79999            
17606.146  816.79999            
17703.029  816.40002            
17799.899  812.79999            
17896.756  813.40002            
17993.6  812.40002            
18090.431  810            
18187.249  812.79999            
18284.054  810.59998            
18380.845  811.20001            
18477.624  813            
18574.39  810.79999            
18671.143  809.20001            
18767.882  813            
18864.609  809.79999            
18961.323  813.20001            
19058.023  810            
19154.711  809.20001            
19251.386  807.79999            
19348.047  811.40002            
19444.696  811.79999            
19541.332  811            
19637.954  811            
19734.564  813.20001            
19831.16  810.59998            
19927.744  815            
20024.315  811.59998            
20120.872  811.20001            
20217.417  812.20001            
20313.948  812.20001            
20410.467  811.20001            
20506.972  812.59998            
20603.465  812.20001            
20699.945  811.20001            
20796.411  811.59998            
20892.865  809.40002            
20989.305  811.79999            
21085.733  811.79999            
21182.148  810.40002            
21278.549  813.20001            
21374.938  811.40002            
21471.314  811.79999            
21567.677  811.20001            
21664.026  812.79999            
21760.363  810.20001            
21856.687  812.40002            
21952.998  810            
22049.296  811.20001            
22145.581  812.40002            
22241.852  809.20001            
22338.111  810            
22434.357  811.59998            
22530.59  810.59998            
22626.81  808.59998            
22723.018  812.20001            
22819.212  813.79999            
22915.393  810            
23011.561  811.40002            
23107.716  812.40002            
23203.859  813.20001            
23299.988  812.79999            
23396.105  811.59998            
23492.208  815.79999            
23588.299  812.59998            
23684.376  810            
23780.441  812.20001            
23876.492  814            
23972.531  812.20001            
24068.557  812.20001            
24164.57  814.59998            
24260.57  811            
24356.557  810.79999            
24452.531  813.40002            
24548.492  813.20001            
24644.44  813.20001            
24740.375  810.40002            
24836.298  812.79999            
24932.207  811.79999            
25028.104  814.59998            
25123.987  814.59998            
25219.858  813.40002            
25315.716  814.79999            
25411.56  813.79999            
25507.392  812.40002            
25603.211  816.40002            
25699.017  814.79999            
25794.81  814.79999            
25890.591  815            
25986.358  816.40002            
26082.112  812.59998            
26177.854  814            
26273.582  815.20001            
26369.298  818.59998            
26465.001  818.59998            
26560.691  814.20001            
26656.368  815.59998            
26752.032  819.59998            
26847.683  816.40002            
26943.321  815.20001            
27038.947  817.20001            
27134.559  815.79999            
27230.159  818.59998            
27325.746  817            
27421.319  815.40002            
27516.88  815.20001            
27612.428  814.20001            
27707.964  814            
27803.486  819.20001            
27898.995  820.20001            
27994.492  816.59998            
28089.976  814.79999            
28185.446  817.20001            
28280.904  817.40002            
28376.349  815.79999            
28471.781  817.20001            
28567.201  816            
28662.607  816.20001            
28758.001  817            
28853.381  817.40002            
28948.749  815.40002            
29044.104  817.40002            
29139.446  817            
29234.776  818.40002            
29330.092  817.20001            
29425.396  815.40002            
29520.686  820            
29615.964  815.59998            
29711.229  816.79999            
29806.481  814.40002            
29901.72  817.59998            
29996.947  821.20001            
30092.16  817.79999            
30187.361  814.40002            
30282.549  814.79999            
30377.724  817.20001            
30472.886  817.40002            
30568.036  818            
30663.172  816            
30758.296  818.40002            
30853.407  814.20001            
30948.505  814.59998            
31043.59  815.59998            
31138.662  818.59998            
31233.722  815            
31328.769  815.40002            
31423.802  816.20001            
31518.823  816.79999            
31613.832  819.59998            
31708.827  820            
31803.81  815.59998            
31898.779  818.79999            
31993.736  815.40002            
32088.681  818.40002            
32183.612  818            
32278.53  818.20001            
32373.436  817.20001            
32468.329  817            
32563.209  821            
32658.076  817.59998            
32752.931  818.20001            
32847.773  821            
32942.601  819.59998            
33037.417  823.20001            
33132.221  818.20001            
33227.011  817.59998            
33321.789  817.20001            
33416.554  819.59998            
33511.306  820            
33606.045  821            
33700.772  819.40002            
33795.485  821.79999            
33890.186  820.79999            
33984.874  822.59998            
34079.55  818            
34174.212  821.40002            
34268.862  822.40002            
34363.499  823.59998            
34458.123  819.40002            
34552.735  819.59998            
34647.334  821.59998            
34741.919  821.59998            
34836.493  818.79999            
34931.053  822            
35025.601  816.40002            
35120.135  819.40002            
35214.657  820.20001            
35309.167  820.20001            
35403.663  819.59998            
35498.147  819            
35592.618  818.79999            
35687.076  819.59998            
35781.522  820.20001            
35875.955  817.40002            
35970.375  820            
36064.782  819.20001            
36159.176  815.40002            
36253.558  816.20001            
36347.927  817.59998            
36442.283  819.40002            
36536.627  815.79999            
36630.957  816.40002            
36725.275  814.59998            
36819.581  812.40002            
36913.873  816.20001            
37008.153  812.79999            
37102.42  812.59998            
37196.674  811            
37290.916  812.20001            
37385.145  810.79999            
37479.361  813.59998            
37573.564  813.79999            
37667.755  811            
37761.933  811.59998            
37856.098  811.20001            
37950.25  811.79999            
38044.39  814.40002            
38138.517  811.59998            
38232.631  810            
38326.733  811.79999            
38420.822  811.20001            
38514.898  809.79999            
38608.961  806.40002            
38703.012  808.59998            
38797.05  808.79999            
38891.075  809.40002            
38985.088  809.20001            
39079.088  806.59998            
39173.075  808.79999            
39267.05  808.59998            
39361.011  809            
39454.96  809.79999            
39548.897  810            
39642.821  809.59998            
39736.731  809.40002            
39830.63  805.40002            
39924.515  807            
40018.388  809.40002            
40112.249  811            
40206.096  809.40002            
40299.931  811            
40393.753  807.79999            
40487.562  807.40002            
40581.359  806.79999            
40675.143  807            
40768.915  810            
40862.674  811.59998            
40956.42  810.40002            
41050.153  808.79999            
41143.874  808.59998            
41237.582  812.40002            
41331.277  812            
41424.96  807.40002            
41518.63  807.40002            
41612.287  805.40002            
41705.932  808.40002            
41799.564  806.40002            
41893.183  810.79999            
41986.79  808.79999            
42080.384  807.59998            
42173.966  807.79999            
42267.534  806.40002            
42361.09  808.20001            
42454.634  805.79999            
42548.165  805.20001            
42641.683  807.59998            
42735.188  809.20001            
42828.681  808            
42922.161  806.79999            
43015.629  807            
43109.084  809.20001            
43202.526  806.40002            
43295.955  806.79999            
43389.372  807            
43482.777  808.40002            
43576.168  807            
43669.547  808.40002            
43762.914  807.79999            
43856.268  805.59998            
43949.609  808.20001            
44042.937  806.79999            
44136.253  808.40002            
44229.557  807.59998            
44322.847  804            
44416.125  807            
44509.391  807.59998            
44602.644  808.79999            
44695.884  808.79999            
44789.111  808.40002            
44882.326  807.40002            
44975.529  806.59998            
45068.718  809            
45161.895  807            
45255.06  804.59998            
45348.212  805.20001            
45441.351  808            
45534.478  807.20001            
45627.592  805.20001            
45720.693  809.20001            
45813.782  808            
45906.858  808.79999            
45999.922  809.40002            
46092.973  810.79999            
46186.011  810            
46279.037  806            
46372.051  809.79999            
46465.051  809.79999            
46558.039  806            
46651.015  805.59998            
46743.978  808.40002            
46836.928  809.40002            
46929.866  809.40002            
47022.791  807.20001            
47115.704  809.40002            
47208.604  805.40002            
47301.491  805.20001            
47394.366  806            
47487.228  805.59998            
47580.078  810.79999            
47672.915  805.79999            
47765.74  809.79999            
47858.552  806.79999            
47951.351  808            
48044.138  807.40002            
48136.912  807            
48229.674  809            
48322.423  809.20001            
48415.16  808.20001            
48507.884  807.40002            
48600.595  804.59998            
48693.294  806            
48785.981  806.79999            
48878.654  806.79999            
48971.316  808            
49063.964  806.79999            
49156.601  806.40002            
49249.224  807            
49341.835  807.40002            
49434.434  808.79999            
49527.02  808            
49619.593  809            
49712.154  807.20001            
49804.703  807.20001            
49897.238  806.79999            
49989.762  807            
50082.273  807.20001            
50174.771  809.20001            
50267.256  806.79999            
50359.73  805            
50452.19  805.59998            
50544.638  806.59998            
50637.074  806.59998            
50729.497  809.79999            
50821.908  806.59998            
50914.306  807.20001            
51006.691  804.40002            
51099.064  805.40002            
51191.424  806.79999            
51283.772  804.79999            
51376.108  808.20001            
51468.431  806.20001            
51560.741  807.59998            
51653.039  808.40002            
51745.324  808.79999            
51837.597  807.20001            
51929.858  807.79999            
52022.106  805.59998            
52114.341  805.79999            
52206.564  807.59998            
52298.774  806.59998            
52390.972  808.20001            
52483.157  805.20001            
52575.33  808.59998            
52667.491  808.59998            
52759.638  807.40002            
52851.774  810.40002            
52943.897  808.40002            
53036.007  807.59998            
53128.105  807.40002            
53220.191  809            
53312.263  808.40002            
53404.324  809.20001            
53496.372  808.59998            
53588.407  809.59998            
53680.431  808.79999            
53772.441  809.59998            
53864.439  810.40002            
53956.425  810            
54048.398  809.20001            
54140.359  809.59998            
54232.307  808.20001            
54324.242  810.20001            
54416.166  809            
54508.077  809.20001            
54599.975  808.59998            
54691.861  811            
54783.734  807.59998            
54875.595  811.59998            
54967.444  811.20001            
55059.28  809.40002            
55151.103  810.79999            
55242.914  810.20001            
55334.713  808            
55426.499  810.40002            
55518.273  812            
55610.034  810.59998            
55701.783  810            
55793.519  809.20001            
55885.243  812            
55976.955  814            
56068.654  810.40002            
56160.341  810.79999            
56252.015  810.40002            
56343.677  812.79999            
56435.326  811            
56526.963  810.79999            
56618.588  809            
56710.2  811.59998            
56801.799  812            
56893.386  812            
56984.961  814.59998            
57076.523  811.59998            
57168.073  811.40002            
57259.611  812            
57351.136  811.20001            
57442.649  810.59998            
57534.149  813.20001            
57625.637  816            
57717.112  812.40002            
57808.575  816.20001            
57900.026  811.59998            
57991.464  812.20001            
58082.89  815.20001            
58174.303  815.20001            
58265.704  816.79999            
58357.092  816.40002            
58448.468  815.79999            
58539.832  817            
58631.184  818.40002            
58722.522  816.79999            
58813.849  816.79999            
58905.163  818.20001            
58996.465  819.40002            
59087.754  818.59998            
59179.031  817.79999            
59270.296  817.20001            
59361.548  819.20001            
59452.788  817.59998            
59544.015  821            
59635.23  820.40002            
59726.433  821.40002            
59817.623  822.40002            
59908.801  820.79999            
59999.966  824.79999            
60091.119  827            
60182.26  827.20001            
60273.389  827.40002            
60364.505  828.40002            
60455.608  830.20001            
60546.699  830.40002            
60637.778  830.20001            
60728.845  831.59998            
60819.899  837            
60910.941  833.79999            
61001.97  833.40002            
61092.987  835.79999            
61183.992  837.20001            
61274.984  839.79999            
61365.964  840.20001            
61456.932  843.20001            
61547.887  845            
61638.83  844.40002            
61729.76  842.40002            
61820.679  850.79999            
61911.584  850.59998            
62002.478  853.79999            
62093.359  859            
62184.228  859.59998            
62275.084  859.40002            
62365.928  859.79999            
62456.76  863            
62547.58  865.20001            
62638.387  862.79999            
62729.181  867.40002            
62819.964  869.79999            
62910.734  870.20001            
63001.492  872.79999            
63092.237  876.59998            
63182.97  882.20001            
63273.691  880            
63364.4  879            
63455.096  876.40002            
63545.779  876            
63636.451  878.79999            
63727.11  879.59998            
63817.757  884.79999            
63908.391  880.40002            
63999.014  879            
64089.624  876.20001            
64180.221  875.59998            
64270.806  875.40002            
64361.379  872.59998            
64451.94  871            
64542.488  863.79999            
64633.024  870.40002            
64723.548  874            
64814.059  864.79999            
64904.558  859.59998            
64995.045  858            
65085.52  858.79999            
65175.982  856.40002            
65266.432  855.59998            
65356.87  856            
65447.295  854.40002            
65537.708  850.59998            
65628.109  847.79999            
65718.497  844.79999            
65808.873  848.20001            
65899.237  846.59998            
65989.589  842.59998            
66079.928  836            
66170.255  839.59998            
66260.57  840            
66350.872  835.40002            
66441.162  834.59998            
66531.44  831.79999            
66621.706  831.20001            
66711.959  830.59998            
66802.2  827.79999            
66892.429  829.20001            
66982.646  825.79999            
67072.85  824.20001            
67163.042  822.79999            
67253.222  823.40002            
67343.389  825.40002            
67433.544  822.20001            
67523.687  818.79999            
67613.818  822.20001            
67703.937  822.40002            
67794.043  816.59998            
67884.137  818.20001            
67974.218  817.20001            
68064.288  813.59998            
68154.345  816.20001            
68244.39  816            
68334.422  817.79999            
68424.443  815.20001            
68514.451  813.79999            
68604.447  815.40002            
68694.431  817.59998            
68784.402  816.20001            
68874.361  813.40002            
68964.308  813            
69054.243  811.40002            
69144.165  811.79999            
69234.076  810.59998            
69323.974  811.59998            
69413.859  809.79999            
69503.733  814            
69593.594  809.79999            
69683.443  808.40002            
69773.28  810.79999            
69863.105  810.79999            
69952.917  810            
70042.718  810.20001            
70132.506  808.59998            
70222.281  807            
70312.045  807.79999            
70401.796  808.79999            
70491.535  806.20001            
70581.262  804.40002            
70670.977  805.59998            
70760.679  807.20001            
70850.37  806            
70940.048  806.40002            
71029.714  808.20001            
71119.367  806.20001            
71209.009  805.79999            
71298.638  807.20001            
71388.255  804.79999            
71477.86  805.59998            
71567.453  803.59998            
71657.033  806.20001            
71746.601  804.59998            
71836.157  806            
71925.701  803            
72015.233  804.40002            
72104.752  803.79999            
72194.26  802.40002            
72283.755  804            
72373.238  802.79999            
72462.708  803            
72552.167  806.20001            
72641.613  803.20001            
72731.048  803.40002            
72820.47  803            
72909.879  804.40002            
72999.277  804            
73088.663  802.20001            
73178.036  804.20001            
73267.397  800.40002            
73356.746  802.79999            
73446.083  801.79999            
73535.408  802.40002            
73624.72  802            
73714.02  807.40002            
73803.309  801            
73892.585  803.40002            
73981.848  800.59998            
74071.1  800            
74160.34  800.20001            
74249.567  800.79999            
74338.782  800.79999            
74427.985  798.79999            
74517.176  800            
74606.355  801.79999            
74695.521  800            
74784.676  796            
74873.818  798.20001            
74962.948  797.59998            
75052.066  800.20001            
75141.172  800.40002            
75230.266  800            
75319.348  799            
75408.417  799.79999            
75497.474  799.40002            
75586.52  800.20001            
75675.553  797.20001            
75764.574  797.79999            
75853.582  796.59998            
75942.579  796.40002            
76031.564  797.20001            
76120.536  797.20001            
76209.496  799.40002            
76298.445  796.79999            
76387.381  795.79999            
76476.305  795.40002            
76565.216  797.59998            
76654.116  799.79999            
76743.004  797.79999            
76831.879  795.40002            
76920.742  799.20001            
77009.594  796.59998            
77098.433  796            
77187.26  798.59998            
77276.075  797.20001            
77364.878  798.20001            
77453.668  796.20001            
77542.447  796.20001            
77631.213  797.20001            
77719.968  798.20001            
77808.71  796            
77897.44  798.40002            
77986.158  796.79999            
78074.864  796            
78163.558  796.40002            
78252.24  795.59998            
78340.91  795.20001            
78429.567  796            
78518.213  794.59998            
78606.846  797            
78695.468  794.79999            
78784.077  795.79999            
78872.674  796.59998            
78961.259  795.40002            
79049.832  796.40002            
79138.393  796.59998            
79226.942  794.40002            
79315.479  795.20001            
79404.004  796.40002            
79492.516  796.20001            
79581.017  796.40002            
79669.505  794.59998            
79757.982  793.79999            
79846.446  794.79999            
79934.899  794.40002            
80023.339  795            
80111.767  794            
80200.183  793.20001            
80288.587  795            
80376.979  794.20001            
80465.359  796            
80553.727  793.79999            
80642.083  796.40002            
80730.427  792            
80818.758  794.79999            
80907.078  793            
80995.386  793.79999            
81083.681  793.40002            
81171.965  794.20001            
81260.236  795            
81348.496  794.40002            
81436.743  795.79999            
81524.979  793.59998            
81613.202  794.40002            
81701.413  795.40002            
81789.612  794            
81877.8  793.59998            
81965.975  795.59998            
82054.138  794.59998            
82142.289  793.40002            
82230.428  792.59998            
82318.555  793.79999            
82406.67  795.20001            
82494.773  793.59998            
82582.864  793.20001            
82670.943  793            
82759.01  793.79999            
82847.065  792.59998            
82935.108  794.20001            
83023.139  792.79999            
83111.158  792.79999            
83199.164  793.40002            
83287.159  792.59998            
83375.142  794.40002            
83463.113  793            
83551.072  794.20001            
83639.018  793.59998            
83726.953  794.40002            
83814.876  791.40002            
83902.787  792.20001            
83990.686  793.40002            
84078.572  792.59998            
84166.447  790.20001            
84254.31  794.20001            
84342.161  792.20001            
84429.999  793            
84517.826  792.40002            
84605.641  794.40002            
84693.444  792.59998            
84781.235  792            
84869.014  792.40002            
84956.78  793.20001            
85044.535  791.79999            
85132.278  791.40002            
85220.009  792.79999            
85307.728  793            
85395.435  792.20001            
85483.13  794.20001            
85570.813  792.40002            
85658.484  792.20001            
