Single Spectrum_011_1             
x       y           
[m<sup>-1</sup>]     [CCD cts]         
7753.5342  778.40002            
7851.7418  778.20001            
7949.9362  778.20001            
8048.1175  778.20001            
8146.2855  778.40002            
8244.4404  778            
8342.5821  778            
8440.7105  779.20001            
8538.8259  778            
8636.928  778.79999            
8735.017  778            
8833.0927  777.79999            
8931.1553  778.79999            
9029.2048  778            
9127.241  778.79999            
9225.2641  778.59998            
9323.2741  778.40002            
9421.2708  778.59998            
9519.2544  779.40002            
9617.2248  778.59998            
9715.1821  778.79999            
9813.1262  780.59998            
9911.0571  781.40002            
10008.975  784.20001            
10106.88  788.20001            
10204.771  799.79999            
10302.649  814.79999            
10400.514  833            
10498.367  846            
10596.205  857.79999            
10694.031  857.40002            
10791.844  852.20001            
10889.643  845            
10987.429  836.59998            
11085.203  835.59998            
11182.963  839.20001            
11280.709  839.79999            
11378.443  846            
11476.164  852.59998            
11573.871  854            
11671.565  861            
11769.247  866            
11866.915  867.40002            
11964.57  875.40002            
12062.211  873.59998            
12159.84  870.59998            
12257.456  873            
12355.058  873.20001            
12452.647  871.59998            
12550.224  869.59998            
12647.787  875.40002            
12745.337  865.59998            
12842.874  861.40002            
12940.397  866.40002            
13037.908  868.40002            
13135.405  867            
13232.89  872.79999            
13330.361  871.20001            
13427.819  872.20001            
13525.265  875.79999            
13622.696  877.20001            
13720.115  871.59998            
13817.521  874            
13914.914  871.40002            
14012.293  876.20001            
14109.66  874.40002            
14207.013  876.20001            
14304.354  878.40002            
14401.681  880            
14498.995  878.59998            
14596.296  875            
14693.584  884.79999            
14790.859  880.40002            
14888.121  882.79999            
14985.37  884.79999            
15082.605  887            
15179.828  882.20001            
15277.037  878.40002            
15374.234  877.79999            
15471.417  876            
15568.587  874.59998            
15665.744  881.20001            
15762.889  877.20001            
15860.02  875.20001            
15957.138  877.59998            
16054.243  874.40002            
16151.334  872.20001            
16248.413  874.59998            
16345.479  871.20001            
16442.532  869.79999            
16539.571  867.79999            
16636.598  869.20001            
16733.611  877.20001            
16830.612  878.59998            
16927.599  877.20001            
17024.574  873.40002            
17121.535  872.40002            
17218.483  877.59998            
17315.418  872.40002            
17412.341  878            
17509.25  874            
17606.146  869.79999            
17703.029  871.40002            
17799.899  870.79999            
17896.756  869.79999            
17993.6  870.79999            
18090.431  871.59998            
18187.249  870.20001            
18284.054  870.59998            
18380.845  868.79999            
18477.624  865.59998            
18574.39  863            
18671.143  862.79999            
18767.882  862.40002            
18864.609  861.79999            
18961.323  870.79999            
19058.023  870.40002            
19154.711  868.59998            
19251.386  869            
19348.047  868            
19444.696  865.40002            
19541.332  866            
19637.954  868            
19734.564  872            
19831.16  866.79999            
19927.744  868.20001            
20024.315  871.59998            
20120.872  866            
20217.417  866            
20313.948  869.59998            
20410.467  869.20001            
20506.972  864            
20603.465  862            
20699.945  860.59998            
20796.411  863.59998            
20892.865  868.40002            
20989.305  873.20001            
21085.733  868.40002            
21182.148  865            
21278.549  863.59998            
21374.938  865.79999            
21471.314  865.79999            
21567.677  866.59998            
21664.026  867.79999            
21760.363  861.79999            
21856.687  868.40002            
21952.998  867.40002            
22049.296  865            
22145.581  868.59998            
22241.852  861.59998            
22338.111  858            
22434.357  858            
22530.59  855.20001            
22626.81  855.59998            
22723.018  855.59998            
22819.212  854            
22915.393  856.20001            
23011.561  859.59998            
23107.716  860.59998            
23203.859  862.59998            
23299.988  859            
23396.105  862            
23492.208  859            
23588.299  861.40002            
23684.376  858.40002            
23780.441  860.79999            
23876.492  854.79999            
23972.531  856.79999            
24068.557  856.20001            
24164.57  858.40002            
24260.57  856            
24356.557  853.79999            
24452.531  854.20001            
24548.492  857            
24644.44  858.59998            
24740.375  856.40002            
24836.298  853.79999            
24932.207  855            
25028.104  854            
25123.987  857.79999            
25219.858  855            
25315.716  857.40002            
25411.56  855.79999            
25507.392  850            
25603.211  856            
25699.017  856.79999            
25794.81  857.79999            
25890.591  852.40002            
25986.358  850.59998            
26082.112  858.40002            
26177.854  859.40002            
26273.582  859            
26369.298  858.20001            
26465.001  856.20001            
26560.691  855            
26656.368  858            
26752.032  858.40002            
26847.683  855.79999            
26943.321  860.59998            
27038.947  852.20001            
27134.559  857.79999            
27230.159  856.59998            
27325.746  857.20001            
27421.319  858.79999            
27516.88  858.40002            
27612.428  860.59998            
27707.964  853.79999            
27803.486  857.79999            
27898.995  860.20001            
27994.492  861.20001            
28089.976  865            
28185.446  857.79999            
28280.904  860.59998            
28376.349  863            
28471.781  856.40002            
28567.201  858            
28662.607  858.79999            
28758.001  858.79999            
28853.381  857            
28948.749  854.40002            
29044.104  858.59998            
29139.446  860.79999            
29234.776  857            
29330.092  862            
29425.396  857            
29520.686  865            
29615.964  863.40002            
29711.229  858            
29806.481  859            
29901.72  863.59998            
29996.947  867            
30092.16  864.59998            
30187.361  861.79999            
30282.549  863.20001            
30377.724  866.79999            
30472.886  866.20001            
30568.036  860.79999            
30663.172  865.20001            
30758.296  864            
30853.407  871.20001            
30948.505  871.59998            
31043.59  867.20001            
31138.662  866.79999            
31233.722  868.40002            
31328.769  869.59998            
31423.802  871.20001            
31518.823  871.40002            
31613.832  872.59998            
31708.827  872.40002            
31803.81  871.40002            
31898.779  869            
31993.736  871.40002            
32088.681  868            
32183.612  870.40002            
32278.53  865.20001            
32373.436  866.59998            
32468.329  868.59998            
32563.209  869.79999            
32658.076  868.59998            
32752.931  866.79999            
32847.773  868.59998            
32942.601  871            
33037.417  867.40002            
33132.221  861.40002            
33227.011  870.59998            
33321.789  866.79999            
33416.554  864.59998            
33511.306  867.20001            
33606.045  867.40002            
33700.772  868            
33795.485  865            
33890.186  867.40002            
33984.874  875.79999            
34079.55  870.40002            
34174.212  870.59998            
34268.862  871.40002            
34363.499  867.79999            
34458.123  872.20001            
34552.735  874.59998            
34647.334  868.79999            
34741.919  870.40002            
34836.493  870.79999            
34931.053  870.40002            
35025.601  871.20001            
35120.135  872.40002            
35214.657  875.59998            
35309.167  873.59998            
35403.663  877            
35498.147  879.79999            
35592.618  883.79999            
35687.076  875.79999            
35781.522  873            
35875.955  877.20001            
35970.375  879.40002            
36064.782  879.79999            
36159.176  880.79999            
36253.558  882.40002            
36347.927  876.59998            
36442.283  879.59998            
36536.627  884            
36630.957  878.59998            
36725.275  880.20001            
36819.581  878.20001            
36913.873  877.20001            
37008.153  884.59998            
37102.42  879            
37196.674  878.79999            
37290.916  882.59998            
37385.145  879.20001            
37479.361  878.79999            
37573.564  879.40002            
37667.755  875            
37761.933  876.40002            
37856.098  871            
37950.25  875.59998            
38044.39  872.20001            
38138.517  872.79999            
38232.631  869.20001            
38326.733  868.59998            
38420.822  871.59998            
38514.898  868.40002            
38608.961  875.59998            
38703.012  870.40002            
38797.05  868            
38891.075  874.59998            
38985.088  872.59998            
39079.088  877.79999            
39173.075  876            
39267.05  870.59998            
39361.011  875            
39454.96  873.79999            
39548.897  876            
39642.821  870.59998            
39736.731  870            
39830.63  871.20001            
39924.515  870.59998            
40018.388  868.40002            
40112.249  866.59998            
40206.096  870            
40299.931  873.59998            
40393.753  875.40002            
40487.562  871.59998            
40581.359  875.59998            
40675.143  872.59998            
40768.915  876.59998            
40862.674  871.59998            
40956.42  877.20001            
41050.153  872.40002            
41143.874  868.40002            
41237.582  874.79999            
41331.277  871.79999            
41424.96  875.59998            
41518.63  873.40002            
41612.287  876            
41705.932  876.20001            
41799.564  871.40002            
41893.183  870.40002            
41986.79  868.20001            
42080.384  869.20001            
42173.966  866.59998            
42267.534  869.79999            
42361.09  872.79999            
42454.634  871.79999            
42548.165  875.40002            
42641.683  873.79999            
42735.188  870.79999            
42828.681  865.59998            
42922.161  867.40002            
43015.629  872.40002            
43109.084  869.20001            
43202.526  874            
43295.955  877.20001            
43389.372  876.20001            
43482.777  871            
43576.168  877            
43669.547  874.59998            
43762.914  874            
43856.268  878.40002            
43949.609  878.59998            
44042.937  877.40002            
44136.253  878.79999            
44229.557  873.20001            
44322.847  872.59998            
44416.125  876.79999            
44509.391  880.40002            
44602.644  872.20001            
44695.884  875            
44789.111  879.20001            
44882.326  879.59998            
44975.529  874.79999            
45068.718  875            
45161.895  874            
45255.06  879.20001            
45348.212  879            
45441.351  879.40002            
45534.478  879            
45627.592  874.20001            
45720.693  874.79999            
45813.782  877            
45906.858  877.79999            
45999.922  879            
46092.973  884.79999            
46186.011  881.20001            
46279.037  877            
46372.051  885            
46465.051  874.40002            
46558.039  880.40002            
46651.015  882.20001            
46743.978  884.40002            
46836.928  879.79999            
46929.866  876.59998            
47022.791  886            
47115.704  885.20001            
47208.604  879.20001            
47301.491  879.20001            
47394.366  877.20001            
47487.228  878.40002            
47580.078  877.20001            
47672.915  874.59998            
47765.74  884.79999            
47858.552  878            
47951.351  881.79999            
48044.138  876.59998            
48136.912  880            
48229.674  881.59998            
48322.423  884.59998            
48415.16  885.79999            
48507.884  881.20001            
48600.595  879            
48693.294  879            
48785.981  882.20001            
48878.654  875.40002            
48971.316  883.20001            
49063.964  878.40002            
49156.601  879            
49249.224  879            
49341.835  878            
49434.434  875.59998            
49527.02  876.79999            
49619.593  874.40002            
49712.154  879.79999            
49804.703  885.79999            
49897.238  885            
49989.762  877.79999            
50082.273  879.20001            
50174.771  880.79999            
50267.256  877.59998            
50359.73  878.20001            
50452.19  884.40002            
50544.638  879.79999            
50637.074  876.79999            
50729.497  879.20001            
50821.908  885.59998            
50914.306  885.59998            
51006.691  878.59998            
51099.064  877            
51191.424  877            
51283.772  869.79999            
51376.108  873            
51468.431  876.79999            
51560.741  877            
51653.039  882.40002            
51745.324  884.40002            
51837.597  884            
51929.858  879.40002            
52022.106  883.40002            
52114.341  887.20001            
52206.564  887.40002            
52298.774  887            
52390.972  880.20001            
52483.157  883.40002            
52575.33  882.20001            
52667.491  877.59998            
52759.638  885.59998            
52851.774  880.40002            
52943.897  879.20001            
53036.007  875            
53128.105  877.40002            
53220.191  884.59998            
53312.263  886.40002            
53404.324  895.59998            
53496.372  889.79999            
53588.407  890.40002            
53680.431  886            
53772.441  887.20001            
53864.439  890.59998            
53956.425  890.79999            
54048.398  887.40002            
54140.359  892.79999            
54232.307  894.20001            
54324.242  892.40002            
54416.166  894.40002            
54508.077  895            
54599.975  897.79999            
54691.861  899.40002            
54783.734  897.59998            
54875.595  904.20001            
54967.444  906.59998            
55059.28  907            
55151.103  896.40002            
55242.914  907.40002            
55334.713  903.40002            
55426.499  898.40002            
55518.273  907.40002            
55610.034  905.59998            
55701.783  914.79999            
55793.519  912.40002            
55885.243  904.40002            
55976.955  909.20001            
56068.654  917.59998            
56160.341  915.20001            
56252.015  915.79999            
56343.677  921.40002            
56435.326  926.40002            
56526.963  930.20001            
56618.588  926            
56710.2  924.40002            
56801.799  921            
56893.386  931.79999            
56984.961  926.20001            
57076.523  918            
57168.073  925.59998            
57259.611  930            
57351.136  932.20001            
57442.649  941            
57534.149  936.40002            
57625.637  932.79999            
57717.112  934.59998            
57808.575  938.20001            
57900.026  942.79999            
57991.464  946.40002            
58082.89  953.59998            
58174.303  946.79999            
58265.704  945.20001            
58357.092  946            
58448.468  938.79999            
58539.832  933.40002            
58631.184  938            
58722.522  936            
58813.849  939.20001            
58905.163  945.40002            
58996.465  948            
59087.754  947.79999            
59179.031  955            
59270.296  953.79999            
59361.548  946.79999            
59452.788  945.59998            
59544.015  943.79999            
59635.23  950.40002            
59726.433  948.59998            
59817.623  946            
59908.801  955.59998            
59999.966  943.40002            
60091.119  948.79999            
60182.26  949.59998            
60273.389  948.59998            
60364.505  954.20001            
60455.608  953.59998            
60546.699  959            
60637.778  959.59998            
60728.845  961            
60819.899  967.20001            
60910.941  970.59998            
61001.97  971            
61092.987  963.79999            
61183.992  969            
61274.984  973            
61365.964  974            
61456.932  977.20001            
61547.887  977.40002            
61638.83  976.20001            
61729.76  975.40002            
61820.679  977            
61911.584  972.40002            
62002.478  985.20001            
62093.359  981            
62184.228  987.40002            
62275.084  991            
62365.928  988            
62456.76  983            
62547.58  975.20001            
62638.387  977.59998            
62729.181  985.20001            
62819.964  982            
62910.734  981            
63001.492  977.79999            
63092.237  975            
63182.97  986.59998            
63273.691  983.59998            
63364.4  978.40002            
63455.096  975.40002            
63545.779  969.59998            
63636.451  974.40002            
63727.11  966.40002            
63817.757  967            
63908.391  968.79999            
63999.014  972.59998            
64089.624  970            
64180.221  973.20001            
64270.806  971.59998            
64361.379  982.79999            
64451.94  973.79999            
64542.488  966.59998            
64633.024  977.59998            
64723.548  984.20001            
64814.059  983.20001            
64904.558  991.59998            
64995.045  986.59998            
65085.52  981.40002            
65175.982  981.79999            
65266.432  986            
65356.87  989.79999            
65447.295  987.40002            
65537.708  983.20001            
65628.109  986.79999            
65718.497  974.20001            
65808.873  961.79999            
65899.237  971            
65989.589  969.40002            
66079.928  1010.6            
66170.255  965.59998            
66260.57  943.40002            
66350.872  930.79999            
66441.162  927.20001            
66531.44  931.40002            
66621.706  921.20001            
66711.959  916            
66802.2  909.79999            
66892.429  905.20001            
66982.646  900.40002            
67072.85  895            
67163.042  892.59998            
67253.222  889.59998            
67343.389  889.40002            
67433.544  879.20001            
67523.687  881.79999            
67613.818  875.59998            
67703.937  875.79999            
67794.043  875.20001            
67884.137  870.59998            
67974.218  877.40002            
68064.288  871.40002            
68154.345  869            
68244.39  867.40002            
68334.422  866.20001            
68424.443  861.20001            
68514.451  863.59998            
68604.447  862            
68694.431  861.20001            
68784.402  859.40002            
68874.361  857.79999            
68964.308  859.59998            
69054.243  857.40002            
69144.165  858.20001            
69234.076  859.40002            
69323.974  852.79999            
69413.859  852.79999            
69503.733  855.40002            
69593.594  849.20001            
69683.443  854.40002            
69773.28  857.40002            
69863.105  853.40002            
69952.917  855            
70042.718  852            
70132.506  851.40002            
70222.281  848.59998            
70312.045  844.79999            
70401.796  845.40002            
70491.535  849            
70581.262  847.20001            
70670.977  844.20001            
70760.679  846            
70850.37  843.59998            
70940.048  845.59998            
71029.714  846.40002            
71119.367  844.40002            
71209.009  842.20001            
71298.638  847.20001            
71388.255  844.59998            
71477.86  843.79999            
71567.453  843            
71657.033  845.20001            
71746.601  840.79999            
71836.157  844.20001            
71925.701  843.59998            
72015.233  843.20001            
72104.752  845.20001            
72194.26  843.20001            
72283.755  839.79999            
72373.238  844.59998            
72462.708  844            
72552.167  843            
72641.613  842            
72731.048  843.79999            
72820.47  837.59998            
72909.879  842.20001            
72999.277  841.20001            
73088.663  837            
73178.036  838.59998            
73267.397  837.40002            
73356.746  840.20001            
73446.083  834.40002            
73535.408  838.79999            
73624.72  837.20001            
73714.02  847            
73803.309  842            
73892.585  835.20001            
73981.848  839.40002            
74071.1  836.79999            
74160.34  840.20001            
74249.567  838            
74338.782  840            
74427.985  834.59998            
74517.176  839.59998            
74606.355  836.79999            
74695.521  836            
74784.676  835.79999            
74873.818  837.20001            
74962.948  836            
75052.066  838            
75141.172  835.59998            
75230.266  836.79999            
75319.348  833.79999            
75408.417  834.59998            
75497.474  834            
75586.52  832            
75675.553  835.20001            
75764.574  833            
75853.582  833            
75942.579  828.40002            
76031.564  830.59998            
76120.536  832.20001            
76209.496  831.59998            
76298.445  835.79999            
76387.381  836            
76476.305  830.40002            
76565.216  832.59998            
76654.116  830.79999            
76743.004  830.79999            
76831.879  829.79999            
76920.742  831            
77009.594  828.20001            
77098.433  831.40002            
77187.26  830.40002            
77276.075  830            
77364.878  829.79999            
77453.668  829.79999            
77542.447  826.40002            
77631.213  825.59998            
77719.968  828            
77808.71  828.40002            
77897.44  832.20001            
77986.158  831.20001            
78074.864  827.20001            
78163.558  828            
78252.24  830.59998            
78340.91  828.59998            
78429.567  827            
78518.213  826            
78606.846  829.79999            
78695.468  828.79999            
78784.077  828.59998            
78872.674  828            
78961.259  826.79999            
79049.832  825.79999            
79138.393  825.79999            
79226.942  826.79999            
79315.479  823.59998            
79404.004  826.79999            
79492.516  826.40002            
79581.017  825            
79669.505  823.79999            
79757.982  823            
79846.446  825.20001            
79934.899  825.20001            
80023.339  824.40002            
80111.767  824.40002            
80200.183  824.20001            
80288.587  827.59998            
80376.979  827.40002            
80465.359  827.79999            
80553.727  825.40002            
80642.083  823.79999            
80730.427  824.20001            
80818.758  827.59998            
80907.078  825.79999            
80995.386  823.79999            
81083.681  822.40002            
81171.965  822.79999            
81260.236  821.40002            
81348.496  822.79999            
81436.743  821.59998            
81524.979  827.20001            
81613.202  825.79999            
81701.413  825.59998            
81789.612  822.59998            
81877.8  824.40002            
