Single Spectrum_009_4             
x       y           
[m<sup>-1</sup>]     [CCD cts]         
6574.0134  778.20001            
6672.3794  778            
6770.7322  779.59998            
6869.0718  778.20001            
6967.3982  778            
7065.7114  778.40002            
7164.0114  778.40002            
7262.2982  778            
7360.5718  778.79999            
7458.8322  778.20001            
7557.0794  778.79999            
7655.3134  779            
7753.5342  777.20001            
7851.7418  778.40002            
7949.9362  778.20001            
8048.1175  778.59998            
8146.2855  778.20001            
8244.4404  778.59998            
8342.5821  778.79999            
8440.7105  778.20001            
8538.8259  778.79999            
8636.928  779            
8735.017  777            
8833.0927  778.20001            
8931.1553  778.59998            
9029.2048  777.20001            
9127.241  778.59998            
9225.2641  778.59998            
9323.2741  778.59998            
9421.2708  778.59998            
9519.2544  778.59998            
9617.2248  778.59998            
9715.1821  779.59998            
9813.1262  781            
9911.0571  780.40002            
10008.975  783.40002            
10106.88  786.79999            
10204.771  794.79999            
10302.649  810.79999            
10400.514  831.40002            
10498.367  846.20001            
10596.205  859.20001            
10694.031  857.40002            
10791.844  849.79999            
10889.643  840.59998            
10987.429  838            
11085.203  838            
11182.963  842.20001            
11280.709  845            
11378.443  845.59998            
11476.164  848.20001            
11573.871  857.20001            
11671.565  860.59998            
11769.247  869            
11866.915  869.59998            
11964.57  875.59998            
12062.211  881.40002            
12159.84  879.20001            
12257.456  875.79999            
12355.058  876.79999            
12452.647  878            
12550.224  873            
12647.787  872.59998            
12745.337  873.20001            
12842.874  875.20001            
12940.397  873            
13037.908  878            
13135.405  877.20001            
13232.89  873.40002            
13330.361  877            
13427.819  880.79999            
13525.265  879.40002            
13622.696  877.40002            
13720.115  877            
13817.521  882.40002            
13914.914  878            
14012.293  887.40002            
14109.66  884.59998            
14207.013  880.40002            
14304.354  879.79999            
14401.681  882            
14498.995  878.59998            
14596.296  877.59998            
14693.584  882            
14790.859  881.79999            
14888.121  872.20001            
14985.37  872            
15082.605  875.79999            
15179.828  879.40002            
15277.037  874            
15374.234  873.40002            
15471.417  878.40002            
15568.587  876.59998            
15665.744  875.79999            
15762.889  874            
15860.02  875.20001            
15957.138  876.79999            
16054.243  874.79999            
16151.334  876            
16248.413  877.20001            
16345.479  871.40002            
16442.532  872.79999            
16539.571  873.20001            
16636.598  875.40002            
16733.611  877.20001            
16830.612  871.59998            
16927.599  877.40002            
17024.574  876.20001            
17121.535  872.59998            
17218.483  874            
17315.418  875            
17412.341  870            
17509.25  869.20001            
17606.146  869.40002            
17703.029  867.40002            
17799.899  868            
17896.756  867.79999            
17993.6  871            
18090.431  870.20001            
18187.249  869            
18284.054  872            
18380.845  865.20001            
18477.624  867            
18574.39  864            
18671.143  862.59998            
18767.882  866            
18864.609  863.40002            
18961.323  865.59998            
19058.023  860            
19154.711  862.79999            
19251.386  866.20001            
19348.047  863.79999            
19444.696  868.20001            
19541.332  865            
19637.954  864            
19734.564  866.40002            
19831.16  866.20001            
19927.744  870.59998            
20024.315  875.59998            
20120.872  869            
20217.417  863.79999            
20313.948  861.40002            
20410.467  866.79999            
20506.972  871.59998            
20603.465  868.59998            
20699.945  863.20001            
20796.411  862.79999            
20892.865  866.40002            
20989.305  861.79999            
21085.733  859.59998            
21182.148  864.79999            
21278.549  862.20001            
21374.938  858.79999            
21471.314  854.40002            
21567.677  854.59998            
21664.026  857            
21760.363  855.79999            
21856.687  860.40002            
21952.998  863            
22049.296  857.79999            
22145.581  862.20001            
22241.852  855.40002            
22338.111  855.59998            
22434.357  854.79999            
22530.59  855.20001            
22626.81  853.20001            
22723.018  850.20001            
22819.212  854.40002            
22915.393  856.20001            
23011.561  856.20001            
23107.716  853.59998            
23203.859  856.40002            
23299.988  851.59998            
23396.105  852.59998            
23492.208  854.20001            
23588.299  855.40002            
23684.376  857.59998            
23780.441  859.59998            
23876.492  853.79999            
23972.531  853.20001            
24068.557  854.59998            
24164.57  853            
24260.57  853.79999            
24356.557  852            
24452.531  854            
24548.492  858            
24644.44  853.59998            
24740.375  855.59998            
24836.298  855.79999            
24932.207  859.59998            
25028.104  856.40002            
25123.987  857            
25219.858  855.20001            
25315.716  856.40002            
25411.56  856.59998            
25507.392  852.40002            
25603.211  855            
25699.017  854.40002            
25794.81  856.40002            
25890.591  855.20001            
25986.358  852.59998            
26082.112  853.40002            
26177.854  856.40002            
26273.582  860            
26369.298  855            
26465.001  851.59998            
26560.691  850.20001            
26656.368  849.59998            
26752.032  850            
26847.683  851.40002            
26943.321  856.79999            
27038.947  853.20001            
27134.559  857.40002            
27230.159  851            
27325.746  853.40002            
27421.319  855.79999            
27516.88  855.40002            
27612.428  853            
27707.964  855.20001            
27803.486  853.59998            
27898.995  853            
27994.492  851.59998            
28089.976  851.40002            
28185.446  851.59998            
28280.904  855.40002            
28376.349  852            
28471.781  853.79999            
28567.201  854.20001            
28662.607  855.40002            
28758.001  855.59998            
28853.381  853            
28948.749  848            
29044.104  853.79999            
29139.446  853.79999            
29234.776  854            
29330.092  854            
29425.396  848.79999            
29520.686  854.20001            
29615.964  855            
29711.229  856.40002            
29806.481  853.79999            
29901.72  849.79999            
29996.947  857.20001            
30092.16  851            
30187.361  857            
30282.549  853            
30377.724  854.59998            
30472.886  854.59998            
30568.036  858            
30663.172  857.59998            
30758.296  854            
30853.407  853.40002            
30948.505  852.59998            
31043.59  854.20001            
31138.662  853.79999            
31233.722  857.79999            
31328.769  855.59998            
31423.802  851.20001            
31518.823  854.20001            
31613.832  851.20001            
31708.827  857.20001            
31803.81  855.79999            
31898.779  853.79999            
31993.736  851.59998            
32088.681  854.20001            
32183.612  854.40002            
32278.53  855.40002            
32373.436  854.20001            
32468.329  847            
32563.209  852.40002            
32658.076  849.40002            
32752.931  852.20001            
32847.773  856.79999            
32942.601  853.40002            
33037.417  854            
33132.221  855.79999            
33227.011  855.20001            
33321.789  855.40002            
33416.554  852.79999            
33511.306  854.79999            
33606.045  851.20001            
33700.772  853.79999            
33795.485  848.79999            
33890.186  852            
33984.874  852.40002            
34079.55  853.40002            
34174.212  856.79999            
34268.862  851.79999            
34363.499  854.79999            
34458.123  851.79999            
34552.735  853.40002            
34647.334  850.20001            
34741.919  853.79999            
34836.493  849.79999            
34931.053  849.59998            
35025.601  853.40002            
35120.135  856.40002            
35214.657  858.79999            
35309.167  858.79999            
35403.663  853            
35498.147  853.40002            
35592.618  854            
35687.076  853.20001            
35781.522  854.20001            
35875.955  853.59998            
35970.375  858            
36064.782  853            
36159.176  859.40002            
36253.558  855.40002            
36347.927  855.59998            
36442.283  853.79999            
36536.627  851            
36630.957  853.79999            
36725.275  853.79999            
36819.581  851.59998            
36913.873  851.40002            
37008.153  854            
37102.42  852.79999            
37196.674  855.40002            
37290.916  856.59998            
37385.145  856.59998            
37479.361  851.79999            
37573.564  855.40002            
37667.755  851.59998            
37761.933  855.79999            
37856.098  854.59998            
37950.25  849.20001            
38044.39  853.40002            
38138.517  851.59998            
38232.631  847.20001            
38326.733  850.40002            
38420.822  855.79999            
38514.898  859.59998            
38608.961  861.40002            
38703.012  851.79999            
38797.05  854.59998            
38891.075  854            
38985.088  859.79999            
39079.088  853.40002            
39173.075  855.59998            
39267.05  849.40002            
39361.011  852.79999            
39454.96  855            
39548.897  852.40002            
39642.821  853            
39736.731  856            
39830.63  855            
39924.515  847.20001            
40018.388  848.59998            
40112.249  856.59998            
40206.096  858            
40299.931  854            
40393.753  854            
40487.562  850.79999            
40581.359  854.59998            
40675.143  851.79999            
40768.915  849.79999            
40862.674  854.79999            
40956.42  853.20001            
41050.153  852.40002            
41143.874  848.20001            
41237.582  851.79999            
41331.277  852.59998            
41424.96  849.40002            
41518.63  848.59998            
41612.287  852.40002            
41705.932  856.59998            
41799.564  851            
41893.183  853            
41986.79  851.79999            
42080.384  851.59998            
42173.966  857.59998            
42267.534  848.59998            
42361.09  847.59998            
42454.634  854.20001            
42548.165  856            
42641.683  854.20001            
42735.188  854.59998            
42828.681  855            
42922.161  851.20001            
43015.629  850.79999            
43109.084  854.20001            
43202.526  855.40002            
43295.955  856.20001            
43389.372  857.59998            
43482.777  854.59998            
43576.168  852            
43669.547  850.20001            
43762.914  856            
43856.268  856.40002            
43949.609  857.59998            
44042.937  855.40002            
44136.253  857            
44229.557  851.20001            
44322.847  857.59998            
44416.125  856.79999            
44509.391  857.40002            
44602.644  855.59998            
44695.884  851.40002            
44789.111  855            
44882.326  856            
44975.529  857.40002            
45068.718  856.59998            
45161.895  854.40002            
45255.06  857.20001            
45348.212  854.40002            
45441.351  855.40002            
45534.478  853.20001            
45627.592  855            
45720.693  854.79999            
45813.782  856.20001            
45906.858  855.20001            
45999.922  855            
46092.973  856.79999            
46186.011  854.59998            
46279.037  855.79999            
46372.051  858.79999            
46465.051  855.59998            
46558.039  853            
46651.015  853.79999            
46743.978  857.59998            
46836.928  853.79999            
46929.866  856.40002            
47022.791  855.79999            
47115.704  860.79999            
47208.604  857.59998            
47301.491  853.59998            
47394.366  853.59998            
47487.228  850.40002            
47580.078  853.59998            
47672.915  853.79999            
47765.74  856.59998            
47858.552  854.59998            
47951.351  858.59998            
48044.138  861.20001            
48136.912  858.79999            
48229.674  858.40002            
48322.423  863            
48415.16  860.20001            
48507.884  858            
48600.595  856.59998            
48693.294  858            
48785.981  859.59998            
48878.654  854.79999            
48971.316  854            
49063.964  851.59998            
49156.601  858.79999            
49249.224  861.20001            
49341.835  855.20001            
49434.434  858.40002            
49527.02  855            
49619.593  856.79999            
49712.154  859            
49804.703  862            
49897.238  858.59998            
49989.762  854.40002            
50082.273  857.79999            
50174.771  858.59998            
50267.256  861.20001            
50359.73  862.40002            
50452.19  859.59998            
50544.638  856            
50637.074  852.20001            
50729.497  859            
50821.908  857.20001            
50914.306  861.59998            
51006.691  857.79999            
51099.064  857.59998            
51191.424  855.59998            
51283.772  860.79999            
51376.108  858.79999            
51468.431  861.40002            
51560.741  864.79999            
51653.039  866.79999            
51745.324  865.59998            
51837.597  859.59998            
51929.858  863.20001            
52022.106  864            
52114.341  861.40002            
52206.564  860            
52298.774  860            
52390.972  865.40002            
52483.157  861.20001            
52575.33  863.79999            
52667.491  864.79999            
52759.638  868.20001            
52851.774  863.59998            
52943.897  867.79999            
53036.007  859.79999            
53128.105  865.59998            
53220.191  871.59998            
53312.263  872.20001            
53404.324  875.59998            
53496.372  870.40002            
53588.407  867.40002            
53680.431  868.59998            
53772.441  870.40002            
53864.439  874.40002            
53956.425  872.59998            
54048.398  876            
54140.359  878.40002            
54232.307  869.20001            
54324.242  871.59998            
54416.166  872.40002            
54508.077  874.59998            
54599.975  875.40002            
54691.861  878.40002            
54783.734  879.40002            
54875.595  882.79999            
54967.444  879.20001            
55059.28  881.20001            
55151.103  887.59998            
55242.914  882            
55334.713  878.20001            
55426.499  885            
55518.273  881            
55610.034  880.59998            
55701.783  877.59998            
55793.519  877.20001            
55885.243  878.59998            
55976.955  878.20001            
56068.654  887.40002            
56160.341  888.40002            
56252.015  890            
56343.677  889            
56435.326  892.40002            
56526.963  890            
56618.588  892.40002            
56710.2  892.20001            
56801.799  893            
56893.386  897.59998            
56984.961  898.79999            
57076.523  894.20001            
57168.073  892.40002            
57259.611  891.20001            
57351.136  893.59998            
57442.649  899            
57534.149  899.40002            
57625.637  896            
57717.112  895.79999            
57808.575  907.59998            
57900.026  896.79999            
57991.464  905.59998            
58082.89  909.20001            
58174.303  902.79999            
58265.704  894            
58357.092  898            
58448.468  896            
58539.832  900.40002            
58631.184  901.79999            
58722.522  902            
58813.849  905.20001            
58905.163  909            
58996.465  903.20001            
59087.754  906.79999            
59179.031  908.20001            
59270.296  902.59998            
59361.548  903.59998            
59452.788  901.79999            
59544.015  908.40002            
59635.23  905.79999            
59726.433  904.20001            
59817.623  917            
59908.801  916.40002            
59999.966  912.79999            
60091.119  910.79999            
60182.26  906.20001            
60273.389  917.79999            
60364.505  913.20001            
60455.608  915.59998            
60546.699  924            
60637.778  913.79999            
60728.845  920.59998            
60819.899  918.79999            
60910.941  920.40002            
61001.97  915            
61092.987  920.20001            
61183.992  919.79999            
61274.984  913.59998            
61365.964  925.59998            
61456.932  927            
61547.887  918.40002            
61638.83  914.79999            
61729.76  909            
61820.679  911.40002            
61911.584  915.20001            
62002.478  913.59998            
62093.359  920.59998            
62184.228  918.59998            
62275.084  918            
62365.928  916.20001            
62456.76  916            
62547.58  909.40002            
62638.387  906.40002            
62729.181  908.59998            
62819.964  906.79999            
62910.734  907.40002            
63001.492  911.20001            
63092.237  910.20001            
63182.97  902            
63273.691  896.40002            
63364.4  896.20001            
63455.096  898.20001            
63545.779  897.59998            
63636.451  895            
63727.11  891.20001            
63817.757  885.79999            
63908.391  886.59998            
63999.014  889.20001            
64089.624  878.59998            
64180.221  877.20001            
64270.806  878.20001            
64361.379  876            
64451.94  879.59998            
64542.488  871.79999            
64633.024  871.59998            
64723.548  870.40002            
64814.059  873.59998            
64904.558  867.40002            
64995.045  868.59998            
65085.52  863            
65175.982  861.79999            
65266.432  864            
65356.87  863.40002            
65447.295  858.20001            
65537.708  858.79999            
65628.109  852            
65718.497  851.59998            
65808.873  850.20001            
65899.237  850.20001            
65989.589  850.79999            
66079.928  848.79999            
66170.255  851.20001            
66260.57  851.20001            
66350.872  851            
66441.162  848.59998            
66531.44  849.20001            
66621.706  848.59998            
66711.959  848.40002            
66802.2  844.79999            
66892.429  844.79999            
66982.646  839.59998            
67072.85  843.59998            
67163.042  838.59998            
67253.222  839            
67343.389  838            
67433.544  835.40002            
67523.687  836            
67613.818  832.40002            
67703.937  837.59998            
67794.043  836.59998            
67884.137  837.40002            
67974.218  836.79999            
68064.288  834.59998            
68154.345  831.79999            
68244.39  836            
68334.422  835.40002            
68424.443  836.79999            
68514.451  833.59998            
68604.447  828            
68694.431  828.20001            
68784.402  831.20001            
68874.361  829.40002            
68964.308  830.79999            
69054.243  830.79999            
69144.165  830.40002            
69234.076  828.79999            
69323.974  828.59998            
69413.859  826.20001            
69503.733  827.20001            
69593.594  827.59998            
69683.443  827.40002            
69773.28  829            
69863.105  826.20001            
69952.917  828            
70042.718  830.40002            
70132.506  828.40002            
70222.281  825.79999            
70312.045  826.40002            
70401.796  823.20001            
70491.535  821.40002            
70581.262  824.59998            
70670.977  822.79999            
70760.679  825.59998            
70850.37  825.20001            
70940.048  822            
71029.714  825            
71119.367  825.59998            
71209.009  825.59998            
71298.638  824.20001            
71388.255  821.20001            
71477.86  822            
71567.453  820.59998            
71657.033  822.20001            
71746.601  820.79999            
71836.157  818.79999            
71925.701  823            
72015.233  823            
72104.752  822.59998            
72194.26  822.40002            
72283.755  821.59998            
72373.238  824            
72462.708  824.20001            
72552.167  821.40002            
72641.613  822.59998            
72731.048  818.59998            
72820.47  820.20001            
72909.879  822.59998            
72999.277  816.20001            
73088.663  819.59998            
73178.036  821.59998            
73267.397  819.79999            
73356.746  819.20001            
73446.083  817.20001            
73535.408  820.20001            
73624.72  820.59998            
73714.02  824.79999            
73803.309  819.40002            
73892.585  818.20001            
73981.848  817.59998            
74071.1  817.59998            
74160.34  818            
74249.567  818.79999            
74338.782  818.40002            
74427.985  816.59998            
74517.176  816.79999            
74606.355  818            
74695.521  815.79999            
74784.676  816.79999            
74873.818  818.20001            
74962.948  817.40002            
75052.066  815.20001            
75141.172  818            
75230.266  817.20001            
75319.348  818.79999            
75408.417  816            
75497.474  815.79999            
75586.52  816            
75675.553  817            
75764.574  814.20001            
75853.582  813.59998            
75942.579  814            
76031.564  814.40002            
76120.536  815            
76209.496  816.40002            
76298.445  816            
76387.381  815.40002            
76476.305  815            
76565.216  810.40002            
76654.116  810.20001            
76743.004  812.79999            
76831.879  815.20001            
76920.742  812.40002            
77009.594  814            
77098.433  813.79999            
77187.26  813.79999            
77276.075  814.40002            
77364.878  812.79999            
77453.668  813.40002            
77542.447  812            
77631.213  812.59998            
77719.968  812.40002            
77808.71  815            
77897.44  816            
77986.158  810            
78074.864  810.79999            
78163.558  811            
78252.24  813.79999            
78340.91  811.20001            
78429.567  812.79999            
78518.213  812.20001            
78606.846  813.20001            
78695.468  813.20001            
78784.077  811.40002            
78872.674  812.79999            
78961.259  812            
79049.832  811.20001            
79138.393  810.20001            
79226.942  809.20001            
79315.479  808.40002            
79404.004  808.40002            
79492.516  814.20001            
79581.017  811.20001            
79669.505  811            
79757.982  810.40002            
79846.446  806.79999            
79934.899  810.79999            
80023.339  808.79999            
80111.767  812.59998            
80200.183  812.40002            
80288.587  807.79999            
80376.979  810            
80465.359  810.40002            
80553.727  808.59998            
80642.083  810.79999            
