Single Spectrum_040_Spec.Data 1 RE34 2 min             
x       y           
[m<sup>-1</sup>]     [CCD cts]         
5318.2209  777.5            
5524.8115  778.09998            
5731.3442  779.20001            
5937.8189  780.79999            
6144.2357  782.20001            
6350.5947  785            
6556.8958  788.5            
6763.139  792.90002            
6969.3245  804            
7175.4521  815.79999            
7381.522  827.29999            
7587.5342  841.09998            
7793.4886  858.29999            
7999.3853  867.5            
8205.2243  875.09998            
8411.0057  885.59998            
8616.7295  890.5            
8822.3956  887.5            
9028.0042  888.09998            
9233.5552  889.79999            
9439.0486  899.09998            
9644.4846  894.29999            
9849.863  893.29999            
10055.184  888.20001            
10260.447  885.5            
10465.653  886.79999            
10670.802  884.20001            
10875.893  885.09998            
11080.927  881.09998            
11285.904  886.20001            
11490.823  880.70001            
11695.685  880            
11900.49  878.59998            
12105.237  877.90002            
12309.927  876.40002            
12514.56  879.79999            
12719.136  882.20001            
12923.654  879.20001            
13128.116  877.40002            
13332.52  877.70001            
13536.867  869.20001            
13741.157  869.5            
13945.391  868.59998            
14149.567  867.59998            
14353.686  867.40002            
14557.748  867            
14761.753  867.70001            
14965.701  871.09998            
15169.592  870.90002            
15373.426  867.70001            
15577.204  866            
15780.924  865.29999            
15984.588  863.40002            
16188.195  856.79999            
16391.745  856.09998            
16595.238  855.5            
16798.675  854.79999            
17002.054  853.40002            
17205.378  853            
17408.644  848.20001            
17611.854  849.70001            
17815.007  850.29999            
18018.103  846.5            
18221.143  846.20001            
18424.127  850.59998            
18627.053  848.09998            
18829.923  846.09998            
19032.737  847            
19235.494  849.90002            
19438.195  850            
19640.839  847.90002            
19843.427  841.59998            
20045.959  847.29999            
20248.434  846.20001            
20450.853  844.09998            
20653.215  843.20001            
20855.521  844.90002            
21057.771  842.5            
21259.964  840.09998            
21462.101  839.59998            
21664.182  841.09998            
21866.207  841.09998            
22068.176  837.40002            
22270.088  840.70001            
22471.945  837.20001            
22673.745  838.5            
22875.489  837.79999            
23077.177  839.20001            
23278.809  835.70001            
23480.384  834.29999            
23681.904  835            
23883.368  833            
24084.776  830.5            
24286.128  832.79999            
24487.424  832.40002            
24688.664  834.59998            
24889.848  833.20001            
25090.977  831.59998            
25292.049  831.79999            
25493.066  830.09998            
25694.027  831.79999            
25894.932  831.90002            
26095.781  831.90002            
26296.575  831.40002            
26497.312  831.09998            
26697.994  833.29999            
26898.621  834.70001            
27099.192  831.20001            
27299.707  832.20001            
27500.167  830.29999            
27700.571  832.40002            
27900.919  833            
28101.212  836.79999            
28301.449  835.5            
28501.631  836.59998            
28701.757  835            
28901.828  835.40002            
29101.844  835.90002            
29301.804  836.09998            
29501.708  836.40002            
29701.557  836            
29901.351  835.70001            
30101.09  835.90002            
30300.773  833.09998            
30500.401  834.40002            
30699.973  835.29999            
30899.491  837.5            
31098.953  837.09998            
31298.36  841.29999            
31497.712  839.79999            
31697.008  838.20001            
31896.25  841.5            
32095.436  841.70001            
32294.567  840.40002            
32493.643  841.20001            
32692.664  840.40002            
32891.63  841.40002            
33090.541  841.29999            
33289.397  839.79999            
33488.198  840.09998            
33686.944  840.09998            
33885.635  837.90002            
34084.272  835.79999            
34282.853  837.90002            
34481.379  837.09998            
34679.851  837.40002            
34878.267  838.79999            
35076.629  841.70001            
35274.936  841.5            
35473.189  845.09998            
35671.386  840.29999            
35869.529  840.40002            
36067.617  844.20001            
36265.651  843.20001            
36463.629  843.29999            
36661.554  848            
36859.423  843            
37057.238  842.70001            
37254.998  843.5            
37452.704  845.40002            
37650.355  847.29999            
37847.952  844.29999            
38045.494  844.09998            
38242.982  840.20001            
38440.415  842            
38637.794  844.79999            
38835.118  840.59998            
39032.388  842.70001            
39229.603  842            
39426.765  843.79999            
39623.872  843.09998            
39820.924  837.29999            
40017.922  839.5            
40214.866  841.59998            
40411.756  843.90002            
40608.592  840.29999            
40805.373  839.29999            
41002.1  843.09998            
41198.773  840.79999            
41395.391  839.20001            
41591.956  843.09998            
41788.467  844.5            
41984.923  847            
42181.325  842.59998            
42377.674  839.5            
42573.968  845.29999            
42770.208  845            
42966.394  842.40002            
43162.527  844.29999            
43358.605  844.5            
43554.629  840.79999            
43750.6  842.09998            
43946.516  844.29999            
44142.379  841.90002            
44338.188  840.29999            
44533.943  842.70001            
44729.644  842.79999            
44925.292  843.29999            
45120.885  840.70001            
45316.425  845.29999            
45511.912  845.09998            
45707.344  847            
45902.723  842.40002            
46098.048  840.5            
46293.32  843.90002            
46488.537  842.70001            
46683.702  847.59998            
46878.812  849.90002            
47073.87  846.70001            
47268.873  846.70001            
47463.823  846.5            
47658.72  847.5            
47853.563  843.40002            
48048.352  847.90002            
48243.089  852            
48437.771  849.79999            
48632.401  849.20001            
48826.977  852.70001            
49021.499  850.90002            
49215.968  853            
49410.384  848.90002            
49604.747  852.40002            
49799.056  852.09998            
49993.312  847.40002            
50187.515  848.20001            
50381.665  852            
50575.761  849.90002            
50769.804  849.90002            
50963.795  854.29999            
51157.731  854.70001            
51351.615  851.90002            
51545.446  853.20001            
51739.224  855.79999            
51932.948  855.59998            
52126.62  858.79999            
52320.238  856.5            
52513.803  854.09998            
52707.316  857.09998            
52900.776  853.40002            
53094.182  858.29999            
53287.536  856.5            
53480.836  856.5            
53674.084  856.79999            
53867.279  861.09998            
54060.421  854.5            
54253.511  858.90002            
54446.547  858.5            
54639.531  861.29999            
54832.462  860.5            
55025.34  863.20001            
55218.166  861.20001            
55410.939  858.70001            
55603.659  862            
55796.326  862            
55988.941  865.29999            
56181.503  864            
56374.013  864            
56566.47  863.90002            
56758.874  864.79999            
56951.226  868.20001            
57143.525  868            
57335.772  864.79999            
57527.966  868.20001            
57720.108  867.59998            
57912.198  866.79999            
58104.235  865.70001            
58296.219  870.70001            
58488.151  866.70001            
58680.031  869.70001            
58871.859  867.90002            
59063.634  867.40002            
59255.356  870            
59447.027  865.40002            
59638.645  863.40002            
59830.211  861.20001            
60021.725  871.40002            
60213.186  865.90002            
60404.596  868.59998            
60595.953  868.09998            
60787.258  867.59998            
60978.511  867.20001            
61169.711  864.29999            
61360.86  865.5            
61551.957  866.5            
61743.001  868.5            
61933.994  868.59998            
62124.934  867.20001            
62315.822  872.40002            
62506.659  868.79999            
62697.443  866.70001            
62888.176  863.59998            
63078.857  865.29999            
63269.485  863.59998            
63460.062  866.70001            
63650.587  862.90002            
63841.06  866.59998            
64031.482  864.59998            
64221.851  864.70001            
64412.169  865.20001            
64602.435  870            
64792.649  869.40002            
64982.811  867.90002            
65172.922  870.59998            
65362.981  870.29999            
65552.988  876.09998            
65742.944  881.09998            
65932.848  888.79999            
66122.701  884.79999            
66312.501  876            
66502.251  874            
66691.949  870.79999            
66881.595  866.59998            
67071.189  858.09998            
67260.733  856.5            
67450.224  852            
67639.664  851.40002            
67829.053  848.5            
68018.391  843.90002            
68207.677  842.20001            
68396.911  843.29999            
68586.094  848.09998            
68775.226  844.09998            
68964.307  840.79999            
69153.336  841            
69342.314  841.59998            
69531.24  837.70001            
69720.116  840.70001            
69908.94  837.20001            
70097.713  837.90002            
70286.435  837.09998            
70475.105  837.09998            
70663.725  840.40002            
70852.293  837.59998            
71040.81  838.5            
71229.276  836.09998            
71417.691  834.5            
71606.055  840.59998            
71794.368  838.29999            
71982.63  836.59998            
72170.841  835.90002            
72359.001  836.09998            
72547.109  834.79999            
72735.167  837.59998            
72923.174  835.09998            
73111.131  833.70001            
73299.036  833.5            
73486.89  835.09998            
73674.694  836.20001            
73862.446  833            
74050.148  836.70001            
74237.799  835.70001            
74425.399  830.40002            
74612.949  835.29999            
74800.447  838.09998            
74987.896  831.70001            
75175.293  836.59998            
75362.639  835.79999            
75549.935  833.09998            
75737.181  834            
75924.375  835.5            
76111.519  834.5            
76298.613  834.09998            
76485.656  836.20001            
76672.648  837.79999            
76859.59  830.20001            
77046.481  833.09998            
77233.322  832.29999            
77420.112  835.70001            
77606.852  836.40002            
77793.542  836.20001            
77980.181  834.5            
78166.769  835            
78353.308  830.90002            
78539.795  835.20001            
78726.233  834.90002            
78912.62  835.5            
79098.957  831.5            
79285.243  830            
79471.48  833.59998            
79657.666  833.20001            
79843.801  832.59998            
80029.887  832.40002            
80215.922  832            
80401.907  831.90002            
80587.842  833.90002            
80773.727  829.59998            
80959.562  830            
81145.347  834.59998            
81331.081  831.59998            
81516.766  833.59998            
81702.4  830.70001            
81887.984  829.40002            
82073.519  830.40002            
82259.003  836.29999            
82444.438  834.5            
82629.822  830.40002            
82815.156  831.5            
83000.441  830.09998            
83185.676  832.20001            
83370.86  832.40002            
83555.995  835.20001            
83741.08  832.70001            
83926.115  832.20001            
84111.101  832.5            
84296.036  833.20001            
84480.922  831.79999            
84665.758  835.20001            
84850.545  836.40002            
85035.281  836.70001            
85219.968  833            
85404.605  831            
85589.193  834.20001            
85773.731  832            
85958.219  835            
86142.657  835.5            
86327.046  834.59998            
86511.386  835.90002            
86695.676  833.5            
86879.916  835.29999            
87064.107  831.29999            
87248.248  833.5            
87432.34  836.09998            
87616.383  835.59998            
87800.375  831.29999            
87984.319  833.29999            
88168.213  833.09998            
88352.058  835.70001            
88535.853  833.20001            
88719.599  830.29999            
88903.296  832            
89086.943  834.70001            
89270.541  833            
89454.09  833.79999            
89637.589  838.40002            
89821.039  834.90002            
90004.44  833.20001            
90187.792  835.70001            
90371.094  834.09998            
90554.348  835.59998            
90737.552  835.09998            
90920.707  837            
91103.813  833.90002            
91286.87  832.09998            
91469.877  832.40002            
91652.836  830.79999            
91835.746  832.40002            
92018.606  834.59998            
92201.418  834.29999            
92384.18  835.90002            
92566.894  835            
92749.558  832.29999            
92932.174  831.59998            
93114.741  832.90002            
93297.259  834.5            
93479.727  832.79999            
93662.147  834.09998            
93844.519  835.79999            
94026.841  833.09998            
94209.115  832.20001            
94391.339  835.40002            
94573.515  833.40002            
94755.642  835.79999            
94937.721  834.59998            
95119.751  834.20001            
95301.732  834.29999            
95483.664  835.09998            
95665.547  834            
95847.382  835.79999            
96029.169  833.09998            
96210.906  834.20001            
96392.596  831.20001            
96574.236  834.20001            
96755.828  835.5            
96937.371  837.90002            
97118.866  833.20001            
97300.312  832.09998            
97481.71  832.29999            
97663.06  834.40002            
97844.36  834.09998            
98025.613  832            
98206.817  834.79999            
98387.972  835.90002            
98569.08  835.20001            
98750.138  837            
98931.149  833.90002            
99112.111  835.90002            
99293.025  835            
99473.89  833.79999            
99654.707  836.20001            
99835.476  833.29999            
100016.2  835.09998            
100196.87  835.09998            
100377.49  829.90002            
100558.07  835.29999            
100738.6  837.40002            
100919.08  833.90002            
101099.51  831.90002            
